103.354 39  55 : Req(mm), Rae(mm), Le(mm) - parameters of the end half-cell 
42  42  12  19  32.408  35  57.652 : Al(mm), Bl(mm), al(mm), bl(mm), ll(mm), Ral(mm), Ll(mm) - parameters of the inner half-cell
1300    1            : Freq(MHz), mode
1.           16                  : delta(mm), m
42     90      0      : ZA1(mm), A2(mm), nA
42      80     0      : B1(mm), B2(mm), nB
9        20          0 : a1(mm), a2(mm), na
12.8    13.4      0: b1(mm), b2(mm), nb
2.00         2.20     -1 : l1(mm), l2(mm), nl
1.e-7  10  12: delta freq, f_iter, n_l
-1.0        : r - reentrant 1.0 or not -1.0 or 0.0 for automatic detection
54.9914  50.7779   1 : y_begin(mm), y_end(mm), ny; automatic if ny = 1
0   0     -39     4      : at(mm), bt(mm), c(mm), Lbp / Rbp
----------------------------------------------------------------------------------------------------------------------------------------------------------------------------------------------------------------------------------
      A           B          a          b           l              L           Freq          h            rh        zh           e               re        ze        Q         Rsh         ee             hh             it  r   alpha
-------------------------------------------------------------------------------------------------------------------------------------------------------------------------------------------------------------------------
 42.000 42.000 9.000 12.800 28.573 56.834 1300.000 1.959364 91.133 28.035 1.969432 39.504 7.758  28922 1.666478 1.969445 41.146927 5 -1 107.347119 1
 42.000 42.000 9.000 12.800 28.573 56.834 1300.000 1.959364 91.133 28.035 1.969432 39.504 7.758  28922 1.666478 1.969445 41.146927 5 -1 107.347119 1
 42.000 42.000 9.000 12.800 28.573 56.834 1300.000 1.959364 91.133 28.035 1.969432 39.504 7.758  28922 1.666478 1.969445 41.146927 5 -1 107.347119 1
 42.000 42.000 9.000 12.800 28.573 56.834 1300.000 1.959364 91.133 28.035 1.969432 39.504 7.758  28922 1.666478 1.969445 41.146927 5 -1 107.347119 1
 42.000 42.000 9.000 12.800 28.573 56.834 1300.000 1.959364 91.133 28.035 1.969432 39.504 7.758  28922 1.666478 1.969445 41.146927 5 -1 107.347119 1
